#FORMAT	     : EMSA/MAS Spectral Data File
#VERSION     : 1.0
#TITLE       : Fe_EELS-Core-Loss_Feldhoff_Armin_241
#DATE        : 
#TIME        : 
#OWNER       : eelsdatabase.net
#NPOINTS     : 1024
#NCOLUMNS    : 1
#XUNITS      : eV
#YUNITS      : 
#DATATYPE    : XY
#XPERCHAN    : 0.1
#OFFSET      : 6.792000e+002
#SIGNALTYPE  : ELS
#SPECTRUM    : Spectral Data Starts Here
6.792000e+002, 7.685821e+003
6.793000e+002, 8.121642e+003
6.794000e+002, 7.730597e+003
6.795000e+002, 7.761194e+003
6.796000e+002, 7.824627e+003
6.797000e+002, 7.905970e+003
6.798000e+002, 8.167910e+003
6.799000e+002, 8.127612e+003
6.800000e+002, 7.932089e+003
6.801000e+002, 7.944030e+003
6.802000e+002, 7.702985e+003
6.803000e+002, 7.642537e+003
6.804000e+002, 7.763433e+003
6.805000e+002, 7.899253e+003
6.806000e+002, 7.931343e+003
6.807000e+002, 7.848507e+003
6.808000e+002, 7.894030e+003
6.809000e+002, 7.699253e+003
6.810000e+002, 7.752239e+003
6.811000e+002, 7.856716e+003
6.812000e+002, 7.708209e+003
6.813000e+002, 7.892537e+003
6.814000e+002, 7.982836e+003
6.815000e+002, 7.744030e+003
6.816000e+002, 7.738059e+003
6.817000e+002, 7.726865e+003
6.818000e+002, 7.521642e+003
6.819000e+002, 7.709701e+003
6.820000e+002, 7.778358e+003
6.821000e+002, 7.776119e+003
6.822000e+002, 7.857462e+003
6.823000e+002, 7.965671e+003
6.824000e+002, 7.877612e+003
6.825000e+002, 7.795522e+003
6.826000e+002, 7.605224e+003
6.827000e+002, 7.655970e+003
6.828000e+002, 7.642537e+003
6.829000e+002, 7.450746e+003
6.830000e+002, 7.439552e+003
6.831000e+002, 7.767910e+003
6.832000e+002, 7.670895e+003
6.833000e+002, 7.768656e+003
6.834000e+002, 7.682089e+003
6.835000e+002, 7.612686e+003
6.836000e+002, 7.778358e+003
6.837000e+002, 7.833582e+003
6.838000e+002, 7.598507e+003
6.839000e+002, 7.864925e+003
6.840000e+002, 7.585821e+003
6.841000e+002, 7.720149e+003
6.842000e+002, 7.804477e+003
6.843000e+002, 7.889552e+003
6.844000e+002, 7.810447e+003
6.845000e+002, 7.734328e+003
6.846000e+002, 7.684328e+003
6.847000e+002, 7.547015e+003
6.848000e+002, 7.538059e+003
6.849000e+002, 7.476119e+003
6.850000e+002, 7.632836e+003
6.851000e+002, 7.703731e+003
6.852000e+002, 7.832089e+003
6.853000e+002, 7.723134e+003
6.854000e+002, 7.443283e+003
6.855000e+002, 7.835074e+003
6.856000e+002, 7.673880e+003
6.857000e+002, 7.591791e+003
6.858000e+002, 7.632089e+003
6.859000e+002, 7.584328e+003
6.860000e+002, 7.732089e+003
6.861000e+002, 7.653731e+003
6.862000e+002, 7.423880e+003
6.863000e+002, 7.418656e+003
6.864000e+002, 7.517164e+003
6.865000e+002, 7.411194e+003
6.866000e+002, 7.541791e+003
6.867000e+002, 7.441791e+003
6.868000e+002, 7.693283e+003
6.869000e+002, 7.655970e+003
6.870000e+002, 7.623134e+003
6.871000e+002, 7.444030e+003
6.872000e+002, 7.408209e+003
6.873000e+002, 7.665671e+003
6.874000e+002, 7.364179e+003
6.875000e+002, 7.629104e+003
6.876000e+002, 7.637313e+003
6.877000e+002, 7.456716e+003
6.878000e+002, 7.473880e+003
6.879000e+002, 7.531343e+003
6.880000e+002, 7.420149e+003
6.881000e+002, 7.654477e+003
6.882000e+002, 7.455224e+003
6.883000e+002, 7.446268e+003
6.884000e+002, 7.471642e+003
6.885000e+002, 7.265671e+003
6.886000e+002, 7.523134e+003
6.887000e+002, 7.249253e+003
6.888000e+002, 7.370895e+003
6.889000e+002, 7.438806e+003
6.890000e+002, 7.470895e+003
6.891000e+002, 7.451492e+003
6.892000e+002, 7.558209e+003
6.893000e+002, 7.260448e+003
6.894000e+002, 7.342537e+003
6.895000e+002, 7.145522e+003
6.896000e+002, 7.435074e+003
6.897000e+002, 7.546268e+003
6.898000e+002, 7.446268e+003
6.899000e+002, 7.516418e+003
6.900000e+002, 7.296268e+003
6.901000e+002, 7.229850e+003
6.902000e+002, 7.047761e+003
6.903000e+002, 7.255970e+003
6.904000e+002, 7.507462e+003
6.905000e+002, 7.270895e+003
6.906000e+002, 7.451492e+003
6.907000e+002, 7.545522e+003
6.908000e+002, 7.393283e+003
6.909000e+002, 7.361940e+003
6.910000e+002, 7.263433e+003
6.911000e+002, 7.426119e+003
6.912000e+002, 7.217910e+003
6.913000e+002, 7.216418e+003
6.914000e+002, 7.304477e+003
6.915000e+002, 7.252985e+003
6.916000e+002, 7.317164e+003
6.917000e+002, 7.421642e+003
6.918000e+002, 7.217164e+003
6.919000e+002, 7.382836e+003
6.920000e+002, 7.338806e+003
6.921000e+002, 7.125373e+003
6.922000e+002, 6.941791e+003
6.923000e+002, 7.204477e+003
6.924000e+002, 7.182089e+003
6.925000e+002, 7.221642e+003
6.926000e+002, 7.315671e+003
6.927000e+002, 7.333582e+003
6.928000e+002, 7.433582e+003
6.929000e+002, 7.145522e+003
6.930000e+002, 7.181343e+003
6.931000e+002, 7.164925e+003
6.932000e+002, 7.242537e+003
6.933000e+002, 7.229104e+003
6.934000e+002, 7.304477e+003
6.935000e+002, 7.308955e+003
6.936000e+002, 7.232836e+003
6.937000e+002, 6.929104e+003
6.938000e+002, 7.041045e+003
6.939000e+002, 7.069403e+003
6.940000e+002, 6.880597e+003
6.941000e+002, 7.043283e+003
6.942000e+002, 7.249253e+003
6.943000e+002, 7.114925e+003
6.944000e+002, 7.257462e+003
6.945000e+002, 7.227612e+003
6.946000e+002, 7.049253e+003
6.947000e+002, 6.988059e+003
6.948000e+002, 7.051492e+003
6.949000e+002, 6.941045e+003
6.950000e+002, 7.061940e+003
6.951000e+002, 7.247761e+003
6.952000e+002, 7.023134e+003
6.953000e+002, 6.978358e+003
6.954000e+002, 7.063433e+003
6.955000e+002, 7.091791e+003
6.956000e+002, 7.046268e+003
6.957000e+002, 7.179850e+003
6.958000e+002, 7.228358e+003
6.959000e+002, 7.091791e+003
6.960000e+002, 6.855970e+003
6.961000e+002, 6.823134e+003
6.962000e+002, 6.894776e+003
6.963000e+002, 6.999253e+003
6.964000e+002, 6.943283e+003
6.965000e+002, 6.918656e+003
6.966000e+002, 7.002985e+003
6.967000e+002, 6.770895e+003
6.968000e+002, 6.994030e+003
6.969000e+002, 7.002239e+003
6.970000e+002, 6.940298e+003
6.971000e+002, 6.947015e+003
6.972000e+002, 7.064925e+003
6.973000e+002, 6.940298e+003
6.974000e+002, 6.881343e+003
6.975000e+002, 6.946268e+003
6.976000e+002, 6.897761e+003
6.977000e+002, 6.870895e+003
6.978000e+002, 7.120149e+003
6.979000e+002, 6.945522e+003
6.980000e+002, 6.967164e+003
6.981000e+002, 6.948507e+003
6.982000e+002, 6.924627e+003
6.983000e+002, 7.015671e+003
6.984000e+002, 6.884328e+003
6.985000e+002, 7.038806e+003
6.986000e+002, 6.873880e+003
6.987000e+002, 6.883582e+003
6.988000e+002, 6.814925e+003
6.989000e+002, 6.875373e+003
6.990000e+002, 6.813433e+003
6.991000e+002, 6.933582e+003
6.992000e+002, 6.935074e+003
6.993000e+002, 6.906716e+003
6.994000e+002, 6.886567e+003
6.995000e+002, 6.879104e+003
6.996000e+002, 6.868656e+003
6.997000e+002, 7.022388e+003
6.998000e+002, 6.966418e+003
6.999000e+002, 6.930597e+003
7.000000e+002, 7.059701e+003
7.001000e+002, 6.882836e+003
7.002000e+002, 6.975373e+003
7.003000e+002, 6.906716e+003
7.004000e+002, 6.832089e+003
7.005000e+002, 7.058209e+003
7.006000e+002, 6.808955e+003
7.007000e+002, 6.734328e+003
7.008000e+002, 6.812686e+003
7.009000e+002, 6.979850e+003
7.010000e+002, 6.911194e+003
7.011000e+002, 6.784328e+003
7.012000e+002, 7.080597e+003
7.013000e+002, 6.973880e+003
7.014000e+002, 6.935821e+003
7.015000e+002, 7.052985e+003
7.016000e+002, 6.891045e+003
7.017000e+002, 7.112686e+003
7.018000e+002, 7.126865e+003
7.019000e+002, 6.967164e+003
7.020000e+002, 6.872388e+003
7.021000e+002, 6.983582e+003
7.022000e+002, 7.120895e+003
7.023000e+002, 7.197761e+003
7.024000e+002, 7.138806e+003
7.025000e+002, 7.261194e+003
7.026000e+002, 7.249253e+003
7.027000e+002, 7.214925e+003
7.028000e+002, 7.076119e+003
7.029000e+002, 7.209701e+003
7.030000e+002, 7.211194e+003
7.031000e+002, 7.168656e+003
7.032000e+002, 7.046268e+003
7.033000e+002, 7.363433e+003
7.034000e+002, 7.441791e+003
7.035000e+002, 7.345522e+003
7.036000e+002, 7.385074e+003
7.037000e+002, 7.521642e+003
7.038000e+002, 7.541045e+003
7.039000e+002, 7.599253e+003
7.040000e+002, 7.603731e+003
7.041000e+002, 7.713433e+003
7.042000e+002, 7.785821e+003
7.043000e+002, 7.939552e+003
7.044000e+002, 8.165671e+003
7.045000e+002, 8.228358e+003
7.046000e+002, 8.229104e+003
7.047000e+002, 8.332836e+003
7.048000e+002, 8.329850e+003
7.049000e+002, 8.858955e+003
7.050000e+002, 9.030597e+003
7.051000e+002, 9.026119e+003
7.052000e+002, 9.522388e+003
7.053000e+002, 9.887313e+003
7.054000e+002, 1.014254e+004
7.055000e+002, 1.057687e+004
7.056000e+002, 1.139254e+004
7.057000e+002, 1.202313e+004
7.058000e+002, 1.312463e+004
7.059000e+002, 1.420746e+004
7.060000e+002, 1.521642e+004
7.061000e+002, 1.713657e+004
7.062000e+002, 1.894851e+004
7.063000e+002, 2.113657e+004
7.064000e+002, 2.359403e+004
7.065000e+002, 2.618881e+004
7.066000e+002, 2.937239e+004
7.067000e+002, 3.251791e+004
7.068000e+002, 3.565672e+004
7.069000e+002, 3.907239e+004
7.070000e+002, 4.314403e+004
7.071000e+002, 4.678507e+004
7.072000e+002, 5.010895e+004
7.073000e+002, 5.324328e+004
7.074000e+002, 5.648955e+004
7.075000e+002, 5.896642e+004
7.076000e+002, 6.102462e+004
7.077000e+002, 6.320224e+004
7.078000e+002, 6.426716e+004
7.079000e+002, 6.500746e+004
7.080000e+002, 6.515597e+004
7.081000e+002, 6.438507e+004
7.082000e+002, 6.405597e+004
7.083000e+002, 6.269925e+004
7.084000e+002, 6.142761e+004
7.085000e+002, 6.006194e+004
7.086000e+002, 5.866567e+004
7.087000e+002, 5.700224e+004
7.088000e+002, 5.528060e+004
7.089000e+002, 5.318657e+004
7.090000e+002, 5.125074e+004
7.091000e+002, 4.982761e+004
7.092000e+002, 4.826268e+004
7.093000e+002, 4.647388e+004
7.094000e+002, 4.547910e+004
7.095000e+002, 4.389552e+004
7.096000e+002, 4.236716e+004
7.097000e+002, 4.106642e+004
7.098000e+002, 4.001119e+004
7.099000e+002, 3.907463e+004
7.100000e+002, 3.795074e+004
7.101000e+002, 3.691194e+004
7.102000e+002, 3.625448e+004
7.103000e+002, 3.529403e+004
7.104000e+002, 3.443806e+004
7.105000e+002, 3.339254e+004
7.106000e+002, 3.265298e+004
7.107000e+002, 3.215895e+004
7.108000e+002, 3.132313e+004
7.109000e+002, 3.071492e+004
7.110000e+002, 3.010746e+004
7.111000e+002, 2.962910e+004
7.112000e+002, 2.879776e+004
7.113000e+002, 2.828358e+004
7.114000e+002, 2.761418e+004
7.115000e+002, 2.743283e+004
7.116000e+002, 2.691418e+004
7.117000e+002, 2.635821e+004
7.118000e+002, 2.585895e+004
7.119000e+002, 2.554627e+004
7.120000e+002, 2.500895e+004
7.121000e+002, 2.463731e+004
7.122000e+002, 2.453209e+004
7.123000e+002, 2.405746e+004
7.124000e+002, 2.387239e+004
7.125000e+002, 2.358582e+004
7.126000e+002, 2.320522e+004
7.127000e+002, 2.292239e+004
7.128000e+002, 2.277015e+004
7.129000e+002, 2.251866e+004
7.130000e+002, 2.243731e+004
7.131000e+002, 2.239403e+004
7.132000e+002, 2.239104e+004
7.133000e+002, 2.229701e+004
7.134000e+002, 2.208358e+004
7.135000e+002, 2.207612e+004
7.136000e+002, 2.174552e+004
7.137000e+002, 2.151866e+004
7.138000e+002, 2.131269e+004
7.139000e+002, 2.135746e+004
7.140000e+002, 2.154701e+004
7.141000e+002, 2.127910e+004
7.142000e+002, 2.100298e+004
7.143000e+002, 2.107313e+004
7.144000e+002, 2.094328e+004
7.145000e+002, 2.084254e+004
7.146000e+002, 2.066343e+004
7.147000e+002, 2.046119e+004
7.148000e+002, 2.068881e+004
7.149000e+002, 2.067910e+004
7.150000e+002, 2.036343e+004
7.151000e+002, 2.016642e+004
7.152000e+002, 2.006045e+004
7.153000e+002, 2.012836e+004
7.154000e+002, 1.985522e+004
7.155000e+002, 1.979403e+004
7.156000e+002, 1.960672e+004
7.157000e+002, 1.985373e+004
7.158000e+002, 1.976791e+004
7.159000e+002, 1.970224e+004
7.160000e+002, 1.949179e+004
7.161000e+002, 1.950298e+004
7.162000e+002, 1.941567e+004
7.163000e+002, 1.942239e+004
7.164000e+002, 1.961119e+004
7.165000e+002, 1.924552e+004
7.166000e+002, 1.910373e+004
7.167000e+002, 1.904328e+004
7.168000e+002, 1.905522e+004
7.169000e+002, 1.920224e+004
7.170000e+002, 1.911940e+004
7.171000e+002, 1.908582e+004
7.172000e+002, 1.894254e+004
7.173000e+002, 1.900597e+004
7.174000e+002, 1.901194e+004
7.175000e+002, 1.880149e+004
7.176000e+002, 1.889030e+004
7.177000e+002, 1.899478e+004
7.178000e+002, 1.891492e+004
7.179000e+002, 1.902910e+004
7.180000e+002, 1.921866e+004
7.181000e+002, 1.910522e+004
7.182000e+002, 1.937537e+004
7.183000e+002, 1.956716e+004
7.184000e+002, 2.014851e+004
7.185000e+002, 2.033731e+004
7.186000e+002, 2.054925e+004
7.187000e+002, 2.103657e+004
7.188000e+002, 2.164104e+004
7.189000e+002, 2.214701e+004
7.190000e+002, 2.271716e+004
7.191000e+002, 2.340000e+004
7.192000e+002, 2.403657e+004
7.193000e+002, 2.506866e+004
7.194000e+002, 2.606269e+004
7.195000e+002, 2.713433e+004
7.196000e+002, 2.814925e+004
7.197000e+002, 2.876194e+004
7.198000e+002, 2.975597e+004
7.199000e+002, 3.079701e+004
7.200000e+002, 3.155746e+004
7.201000e+002, 3.242015e+004
7.202000e+002, 3.307612e+004
7.203000e+002, 3.366045e+004
7.204000e+002, 3.424776e+004
7.205000e+002, 3.468507e+004
7.206000e+002, 3.490970e+004
7.207000e+002, 3.524627e+004
7.208000e+002, 3.539179e+004
7.209000e+002, 3.515895e+004
7.210000e+002, 3.524776e+004
7.211000e+002, 3.483880e+004
7.212000e+002, 3.474627e+004
7.213000e+002, 3.445373e+004
7.214000e+002, 3.423582e+004
7.215000e+002, 3.388060e+004
7.216000e+002, 3.355224e+004
7.217000e+002, 3.303582e+004
7.218000e+002, 3.246567e+004
7.219000e+002, 3.230448e+004
7.220000e+002, 3.173283e+004
7.221000e+002, 3.110821e+004
7.222000e+002, 3.092537e+004
7.223000e+002, 3.027836e+004
7.224000e+002, 2.969552e+004
7.225000e+002, 2.942164e+004
7.226000e+002, 2.894776e+004
7.227000e+002, 2.866642e+004
7.228000e+002, 2.842686e+004
7.229000e+002, 2.792836e+004
7.230000e+002, 2.750970e+004
7.231000e+002, 2.723060e+004
7.232000e+002, 2.716194e+004
7.233000e+002, 2.695000e+004
7.234000e+002, 2.657985e+004
7.235000e+002, 2.646791e+004
7.236000e+002, 2.612239e+004
7.237000e+002, 2.559776e+004
7.238000e+002, 2.549104e+004
7.239000e+002, 2.548806e+004
7.240000e+002, 2.534104e+004
7.241000e+002, 2.494328e+004
7.242000e+002, 2.487313e+004
7.243000e+002, 2.473955e+004
7.244000e+002, 2.427239e+004
7.245000e+002, 2.394179e+004
7.246000e+002, 2.401716e+004
7.247000e+002, 2.389925e+004
7.248000e+002, 2.372836e+004
7.249000e+002, 2.355000e+004
7.250000e+002, 2.325970e+004
7.251000e+002, 2.303283e+004
7.252000e+002, 2.320298e+004
7.253000e+002, 2.299552e+004
7.254000e+002, 2.310000e+004
7.255000e+002, 2.293060e+004
7.256000e+002, 2.280597e+004
7.257000e+002, 2.273433e+004
7.258000e+002, 2.285149e+004
7.259000e+002, 2.270149e+004
7.260000e+002, 2.266194e+004
7.261000e+002, 2.254552e+004
7.262000e+002, 2.233209e+004
7.263000e+002, 2.244851e+004
7.264000e+002, 2.233955e+004
7.265000e+002, 2.225672e+004
7.266000e+002, 2.211866e+004
7.267000e+002, 2.214552e+004
7.268000e+002, 2.217612e+004
7.269000e+002, 2.197015e+004
7.270000e+002, 2.221642e+004
7.271000e+002, 2.207537e+004
7.272000e+002, 2.210149e+004
7.273000e+002, 2.193060e+004
7.274000e+002, 2.179478e+004
7.275000e+002, 2.192836e+004
7.276000e+002, 2.177089e+004
7.277000e+002, 2.160000e+004
7.278000e+002, 2.176194e+004
7.279000e+002, 2.171567e+004
7.280000e+002, 2.190075e+004
7.281000e+002, 2.184179e+004
7.282000e+002, 2.144403e+004
7.283000e+002, 2.166269e+004
7.284000e+002, 2.168582e+004
7.285000e+002, 2.165149e+004
7.286000e+002, 2.159478e+004
7.287000e+002, 2.150373e+004
7.288000e+002, 2.159925e+004
7.289000e+002, 2.129776e+004
7.290000e+002, 2.124403e+004
7.291000e+002, 2.142463e+004
7.292000e+002, 2.113209e+004
7.293000e+002, 2.114552e+004
7.294000e+002, 2.145373e+004
7.295000e+002, 2.128507e+004
7.296000e+002, 2.148358e+004
7.297000e+002, 2.135075e+004
7.298000e+002, 2.154478e+004
7.299000e+002, 2.135075e+004
7.300000e+002, 2.108433e+004
7.301000e+002, 2.112089e+004
7.302000e+002, 2.111269e+004
7.303000e+002, 2.103433e+004
7.304000e+002, 2.116492e+004
7.305000e+002, 2.090075e+004
7.306000e+002, 2.132910e+004
7.307000e+002, 2.133657e+004
7.308000e+002, 2.109104e+004
7.309000e+002, 2.097164e+004
7.310000e+002, 2.097089e+004
7.311000e+002, 2.107612e+004
7.312000e+002, 2.111716e+004
7.313000e+002, 2.083284e+004
7.314000e+002, 2.081418e+004
7.315000e+002, 2.121343e+004
7.316000e+002, 2.087910e+004
7.317000e+002, 2.082686e+004
7.318000e+002, 2.100373e+004
7.319000e+002, 2.099851e+004
7.320000e+002, 2.085970e+004
7.321000e+002, 2.100746e+004
7.322000e+002, 2.097612e+004
7.323000e+002, 2.124403e+004
7.324000e+002, 2.129030e+004
7.325000e+002, 2.104851e+004
7.326000e+002, 2.085522e+004
7.327000e+002, 2.091791e+004
7.328000e+002, 2.101343e+004
7.329000e+002, 2.086343e+004
7.330000e+002, 2.080522e+004
7.331000e+002, 2.078806e+004
7.332000e+002, 2.100224e+004
7.333000e+002, 2.076866e+004
7.334000e+002, 2.088881e+004
7.335000e+002, 2.086866e+004
7.336000e+002, 2.098134e+004
7.337000e+002, 2.076194e+004
7.338000e+002, 2.079776e+004
7.339000e+002, 2.068955e+004
7.340000e+002, 2.081567e+004
7.341000e+002, 2.079179e+004
7.342000e+002, 2.098209e+004
7.343000e+002, 2.102164e+004
7.344000e+002, 2.090970e+004
7.345000e+002, 2.080970e+004
7.346000e+002, 2.089776e+004
7.347000e+002, 2.084851e+004
7.348000e+002, 2.079701e+004
7.349000e+002, 2.082313e+004
7.350000e+002, 2.079104e+004
7.351000e+002, 2.040746e+004
7.352000e+002, 2.078955e+004
7.353000e+002, 2.079925e+004
7.354000e+002, 2.068507e+004
7.355000e+002, 2.056791e+004
7.356000e+002, 2.071642e+004
7.357000e+002, 2.064776e+004
7.358000e+002, 2.080224e+004
7.359000e+002, 2.072761e+004
7.360000e+002, 2.074179e+004
7.361000e+002, 2.080597e+004
7.362000e+002, 2.075895e+004
7.363000e+002, 2.032463e+004
7.364000e+002, 2.033806e+004
7.365000e+002, 2.052313e+004
7.366000e+002, 2.075149e+004
7.367000e+002, 2.051343e+004
7.368000e+002, 2.058731e+004
7.369000e+002, 2.056119e+004
7.370000e+002, 2.058134e+004
7.371000e+002, 2.066045e+004
7.372000e+002, 2.071940e+004
7.373000e+002, 2.057015e+004
7.374000e+002, 2.035970e+004
7.375000e+002, 2.046418e+004
7.376000e+002, 2.061791e+004
7.377000e+002, 2.060298e+004
7.378000e+002, 2.057910e+004
7.379000e+002, 2.053881e+004
7.380000e+002, 2.056343e+004
7.381000e+002, 2.063582e+004
7.382000e+002, 2.063582e+004
7.383000e+002, 2.073731e+004
7.384000e+002, 2.050970e+004
7.385000e+002, 2.027239e+004
7.386000e+002, 2.060000e+004
7.387000e+002, 2.054627e+004
7.388000e+002, 2.034478e+004
7.389000e+002, 2.044403e+004
7.390000e+002, 2.039254e+004
7.391000e+002, 2.029776e+004
7.392000e+002, 2.038433e+004
7.393000e+002, 2.034552e+004
7.394000e+002, 2.025522e+004
7.395000e+002, 2.041492e+004
7.396000e+002, 2.057313e+004
7.397000e+002, 2.009627e+004
7.398000e+002, 2.022612e+004
7.399000e+002, 2.002089e+004
7.400000e+002, 2.006343e+004
7.401000e+002, 1.989776e+004
7.402000e+002, 2.009104e+004
7.403000e+002, 2.032761e+004
7.404000e+002, 2.021866e+004
7.405000e+002, 2.029478e+004
7.406000e+002, 2.022313e+004
7.407000e+002, 2.015000e+004
7.408000e+002, 2.016866e+004
7.409000e+002, 2.023955e+004
7.410000e+002, 2.040373e+004
7.411000e+002, 2.010149e+004
7.412000e+002, 2.001418e+004
7.413000e+002, 2.005000e+004
7.414000e+002, 2.017388e+004
7.415000e+002, 1.983134e+004
7.416000e+002, 2.014104e+004
7.417000e+002, 1.994552e+004
7.418000e+002, 2.021418e+004
7.419000e+002, 2.015149e+004
7.420000e+002, 2.013209e+004
7.421000e+002, 2.005448e+004
7.422000e+002, 1.991045e+004
7.423000e+002, 1.985000e+004
7.424000e+002, 1.978358e+004
7.425000e+002, 1.994254e+004
7.426000e+002, 2.001194e+004
7.427000e+002, 1.977313e+004
7.428000e+002, 1.987686e+004
7.429000e+002, 1.993881e+004
7.430000e+002, 1.987239e+004
7.431000e+002, 1.977910e+004
7.432000e+002, 1.988209e+004
7.433000e+002, 2.010821e+004
7.434000e+002, 2.000000e+004
7.435000e+002, 1.985746e+004
7.436000e+002, 1.966343e+004
7.437000e+002, 1.964328e+004
7.438000e+002, 1.973358e+004
7.439000e+002, 1.984552e+004
7.440000e+002, 1.992313e+004
7.441000e+002, 1.973507e+004
7.442000e+002, 1.992089e+004
7.443000e+002, 1.949254e+004
7.444000e+002, 1.981418e+004
7.445000e+002, 1.979478e+004
7.446000e+002, 1.993209e+004
7.447000e+002, 1.982388e+004
7.448000e+002, 1.983881e+004
7.449000e+002, 2.003060e+004
7.450000e+002, 1.988433e+004
7.451000e+002, 1.974627e+004
7.452000e+002, 1.983731e+004
7.453000e+002, 1.968134e+004
7.454000e+002, 1.974403e+004
7.455000e+002, 1.971716e+004
7.456000e+002, 1.955448e+004
7.457000e+002, 1.999328e+004
7.458000e+002, 1.966194e+004
7.459000e+002, 1.962836e+004
7.460000e+002, 1.978806e+004
7.461000e+002, 1.968433e+004
7.462000e+002, 1.962463e+004
7.463000e+002, 1.950224e+004
7.464000e+002, 1.976866e+004
7.465000e+002, 1.990821e+004
7.466000e+002, 1.980746e+004
7.467000e+002, 1.929701e+004
7.468000e+002, 1.961492e+004
7.469000e+002, 1.945373e+004
7.470000e+002, 1.961343e+004
7.471000e+002, 1.939925e+004
7.472000e+002, 1.937313e+004
7.473000e+002, 1.940821e+004
7.474000e+002, 1.952089e+004
7.475000e+002, 1.936567e+004
7.476000e+002, 1.936045e+004
7.477000e+002, 1.958731e+004
7.478000e+002, 1.952761e+004
7.479000e+002, 1.944403e+004
7.480000e+002, 1.942612e+004
7.481000e+002, 1.952239e+004
7.482000e+002, 1.936940e+004
7.483000e+002, 1.930224e+004
7.484000e+002, 1.916194e+004
7.485000e+002, 1.926716e+004
7.486000e+002, 1.943657e+004
7.487000e+002, 1.953284e+004
7.488000e+002, 1.956418e+004
7.489000e+002, 1.914478e+004
7.490000e+002, 1.938582e+004
7.491000e+002, 1.921567e+004
7.492000e+002, 1.915448e+004
7.493000e+002, 1.929851e+004
7.494000e+002, 1.937089e+004
7.495000e+002, 1.935149e+004
7.496000e+002, 1.931418e+004
7.497000e+002, 1.947463e+004
7.498000e+002, 1.958657e+004
7.499000e+002, 1.920224e+004
7.500000e+002, 1.918507e+004
7.501000e+002, 1.926940e+004
7.502000e+002, 1.920224e+004
7.503000e+002, 1.943060e+004
7.504000e+002, 1.934851e+004
7.505000e+002, 1.908134e+004
7.506000e+002, 1.907463e+004
7.507000e+002, 1.907612e+004
7.508000e+002, 1.900448e+004
7.509000e+002, 1.891343e+004
7.510000e+002, 1.934030e+004
7.511000e+002, 1.931940e+004
7.512000e+002, 1.905000e+004
7.513000e+002, 1.916194e+004
7.514000e+002, 1.925448e+004
7.515000e+002, 1.918284e+004
7.516000e+002, 1.898955e+004
7.517000e+002, 1.926716e+004
7.518000e+002, 1.907686e+004
7.519000e+002, 1.915373e+004
7.520000e+002, 1.897612e+004
7.521000e+002, 1.896791e+004
7.522000e+002, 1.920672e+004
7.523000e+002, 1.914179e+004
7.524000e+002, 1.923955e+004
7.525000e+002, 1.928060e+004
7.526000e+002, 1.923358e+004
7.527000e+002, 1.910672e+004
7.528000e+002, 1.907985e+004
7.529000e+002, 1.914925e+004
7.530000e+002, 1.925373e+004
7.531000e+002, 1.928731e+004
7.532000e+002, 1.903582e+004
7.533000e+002, 1.882910e+004
7.534000e+002, 1.876492e+004
7.535000e+002, 1.903881e+004
7.536000e+002, 1.906791e+004
7.537000e+002, 1.918433e+004
7.538000e+002, 1.906940e+004
7.539000e+002, 1.898881e+004
7.540000e+002, 1.896045e+004
7.541000e+002, 1.899701e+004
7.542000e+002, 1.910224e+004
7.543000e+002, 1.926269e+004
7.544000e+002, 1.913358e+004
7.545000e+002, 1.900000e+004
7.546000e+002, 1.886492e+004
7.547000e+002, 1.904776e+004
7.548000e+002, 1.892164e+004
7.549000e+002, 1.884552e+004
7.550000e+002, 1.880000e+004
7.551000e+002, 1.904701e+004
7.552000e+002, 1.900821e+004
7.553000e+002, 1.899254e+004
7.554000e+002, 1.905149e+004
7.555000e+002, 1.895298e+004
7.556000e+002, 1.885821e+004
7.557000e+002, 1.916866e+004
7.558000e+002, 1.900522e+004
7.559000e+002, 1.892463e+004
7.560000e+002, 1.892686e+004
7.561000e+002, 1.897463e+004
7.562000e+002, 1.899403e+004
7.563000e+002, 1.856119e+004
7.564000e+002, 1.874627e+004
7.565000e+002, 1.878657e+004
7.566000e+002, 1.861642e+004
7.567000e+002, 1.859328e+004
7.568000e+002, 1.868358e+004
7.569000e+002, 1.867537e+004
7.570000e+002, 1.887015e+004
7.571000e+002, 1.889328e+004
7.572000e+002, 1.857239e+004
7.573000e+002, 1.864925e+004
7.574000e+002, 1.874851e+004
7.575000e+002, 1.848657e+004
7.576000e+002, 1.847687e+004
7.577000e+002, 1.865000e+004
7.578000e+002, 1.882612e+004
7.579000e+002, 1.877985e+004
7.580000e+002, 1.872388e+004
7.581000e+002, 1.855821e+004
7.582000e+002, 1.854552e+004
7.583000e+002, 1.859552e+004
7.584000e+002, 1.853433e+004
7.585000e+002, 1.872313e+004
7.586000e+002, 1.858806e+004
7.587000e+002, 1.874627e+004
7.588000e+002, 1.849925e+004
7.589000e+002, 1.833060e+004
7.590000e+002, 1.840448e+004
7.591000e+002, 1.821567e+004
7.592000e+002, 1.860149e+004
7.593000e+002, 1.844403e+004
7.594000e+002, 1.834627e+004
7.595000e+002, 1.840298e+004
7.596000e+002, 1.830075e+004
7.597000e+002, 1.825000e+004
7.598000e+002, 1.802985e+004
7.599000e+002, 1.813209e+004
7.600000e+002, 1.827985e+004
7.601000e+002, 1.817089e+004
7.602000e+002, 1.866343e+004
7.603000e+002, 1.836492e+004
7.604000e+002, 1.845597e+004
7.605000e+002, 1.826567e+004
7.606000e+002, 1.846045e+004
7.607000e+002, 1.833955e+004
7.608000e+002, 1.821045e+004
7.609000e+002, 1.824552e+004
7.610000e+002, 1.815298e+004
7.611000e+002, 1.866343e+004
7.612000e+002, 1.840970e+004
7.613000e+002, 1.828731e+004
7.614000e+002, 1.817239e+004
7.615000e+002, 1.842687e+004
7.616000e+002, 1.836045e+004
7.617000e+002, 1.813657e+004
7.618000e+002, 1.814030e+004
7.619000e+002, 1.810746e+004
7.620000e+002, 1.816866e+004
7.621000e+002, 1.822537e+004
7.622000e+002, 1.811940e+004
7.623000e+002, 1.844403e+004
7.624000e+002, 1.820746e+004
7.625000e+002, 1.831791e+004
7.626000e+002, 1.818582e+004
7.627000e+002, 1.821791e+004
7.628000e+002, 1.804776e+004
7.629000e+002, 1.821492e+004
7.630000e+002, 1.845224e+004
7.631000e+002, 1.832388e+004
7.632000e+002, 1.819851e+004
7.633000e+002, 1.827612e+004
7.634000e+002, 1.849552e+004
7.635000e+002, 1.827985e+004
7.636000e+002, 1.825821e+004
7.637000e+002, 1.838433e+004
7.638000e+002, 1.813955e+004
7.639000e+002, 1.799701e+004
7.640000e+002, 1.797910e+004
7.641000e+002, 1.838209e+004
7.642000e+002, 1.814179e+004
7.643000e+002, 1.791940e+004
7.644000e+002, 1.819851e+004
7.645000e+002, 1.822239e+004
7.646000e+002, 1.823433e+004
7.647000e+002, 1.825149e+004
7.648000e+002, 1.842836e+004
7.649000e+002, 1.836866e+004
7.650000e+002, 1.830000e+004
7.651000e+002, 1.849478e+004
7.652000e+002, 1.850672e+004
7.653000e+002, 1.850224e+004
7.654000e+002, 1.851418e+004
7.655000e+002, 1.856194e+004
7.656000e+002, 1.835597e+004
7.657000e+002, 1.836567e+004
7.658000e+002, 1.856940e+004
7.659000e+002, 1.827687e+004
7.660000e+002, 1.817836e+004
7.661000e+002, 1.846119e+004
7.662000e+002, 1.855821e+004
7.663000e+002, 1.856642e+004
7.664000e+002, 1.841045e+004
7.665000e+002, 1.856492e+004
7.666000e+002, 1.845746e+004
7.667000e+002, 1.843955e+004
7.668000e+002, 1.868657e+004
7.669000e+002, 1.870448e+004
7.670000e+002, 1.861716e+004
7.671000e+002, 1.857388e+004
7.672000e+002, 1.864478e+004
7.673000e+002, 1.832537e+004
7.674000e+002, 1.855597e+004
7.675000e+002, 1.864179e+004
7.676000e+002, 1.857985e+004
7.677000e+002, 1.872537e+004
7.678000e+002, 1.857761e+004
7.679000e+002, 1.874104e+004
7.680000e+002, 1.854403e+004
7.681000e+002, 1.826642e+004
7.682000e+002, 1.831940e+004
7.683000e+002, 1.832164e+004
7.684000e+002, 1.843955e+004
7.685000e+002, 1.837836e+004
7.686000e+002, 1.853134e+004
7.687000e+002, 1.858731e+004
7.688000e+002, 1.849478e+004
7.689000e+002, 1.847239e+004
7.690000e+002, 1.860224e+004
7.691000e+002, 1.837313e+004
7.692000e+002, 1.852836e+004
7.693000e+002, 1.844403e+004
7.694000e+002, 1.843134e+004
7.695000e+002, 1.826343e+004
7.696000e+002, 1.852388e+004
7.697000e+002, 1.841791e+004
7.698000e+002, 1.866866e+004
7.699000e+002, 1.835746e+004
7.700000e+002, 1.849254e+004
7.701000e+002, 1.828284e+004
7.702000e+002, 1.822836e+004
7.703000e+002, 1.825522e+004
7.704000e+002, 1.846418e+004
7.705000e+002, 1.835298e+004
7.706000e+002, 1.849627e+004
7.707000e+002, 1.835000e+004
7.708000e+002, 1.826343e+004
7.709000e+002, 1.835000e+004
7.710000e+002, 1.842910e+004
7.711000e+002, 1.842761e+004
7.712000e+002, 1.846045e+004
7.713000e+002, 1.808060e+004
7.714000e+002, 1.831567e+004
7.715000e+002, 1.843209e+004
7.716000e+002, 1.839776e+004
7.717000e+002, 1.833881e+004
7.718000e+002, 1.791418e+004
7.719000e+002, 1.822239e+004
7.720000e+002, 1.832687e+004
7.721000e+002, 1.813060e+004
7.722000e+002, 1.822537e+004
7.723000e+002, 1.820298e+004
7.724000e+002, 1.824328e+004
7.725000e+002, 1.827015e+004
7.726000e+002, 1.803657e+004
7.727000e+002, 1.806418e+004
7.728000e+002, 1.804478e+004
7.729000e+002, 1.820597e+004
7.730000e+002, 1.830075e+004
7.731000e+002, 1.810597e+004
7.732000e+002, 1.832761e+004
7.733000e+002, 1.798433e+004
7.734000e+002, 1.794925e+004
7.735000e+002, 1.811045e+004
7.736000e+002, 1.791045e+004
7.737000e+002, 1.799328e+004
7.738000e+002, 1.782388e+004
7.739000e+002, 1.794552e+004
7.740000e+002, 1.787836e+004
7.741000e+002, 1.800149e+004
7.742000e+002, 1.797388e+004
7.743000e+002, 1.787612e+004
7.744000e+002, 1.777761e+004
7.745000e+002, 1.804254e+004
7.746000e+002, 1.803731e+004
7.747000e+002, 1.792687e+004
7.748000e+002, 1.769254e+004
7.749000e+002, 1.794701e+004
7.750000e+002, 1.781940e+004
7.751000e+002, 1.786940e+004
7.752000e+002, 1.800970e+004
7.753000e+002, 1.789104e+004
7.754000e+002, 1.783433e+004
7.755000e+002, 1.766940e+004
7.756000e+002, 1.773955e+004
7.757000e+002, 1.764254e+004
7.758000e+002, 1.777239e+004
7.759000e+002, 1.793881e+004
7.760000e+002, 1.761940e+004
7.761000e+002, 1.751343e+004
7.762000e+002, 1.751791e+004
7.763000e+002, 1.755672e+004
7.764000e+002, 1.759552e+004
7.765000e+002, 1.745821e+004
7.766000e+002, 1.745075e+004
7.767000e+002, 1.774701e+004
7.768000e+002, 1.752612e+004
7.769000e+002, 1.762985e+004
7.770000e+002, 1.752687e+004
7.771000e+002, 1.754925e+004
7.772000e+002, 1.758134e+004
7.773000e+002, 1.733284e+004
7.774000e+002, 1.740149e+004
7.775000e+002, 1.739179e+004
7.776000e+002, 1.761791e+004
7.777000e+002, 1.752537e+004
7.778000e+002, 1.741343e+004
7.779000e+002, 1.763806e+004
7.780000e+002, 1.747463e+004
7.781000e+002, 1.740597e+004
7.782000e+002, 1.741642e+004
7.783000e+002, 1.762612e+004
7.784000e+002, 1.746418e+004
7.785000e+002, 1.755000e+004
7.786000e+002, 1.733284e+004
7.787000e+002, 1.735373e+004
7.788000e+002, 1.742836e+004
7.789000e+002, 1.728209e+004
7.790000e+002, 1.713881e+004
7.791000e+002, 1.743358e+004
7.792000e+002, 1.717537e+004
7.793000e+002, 1.729328e+004
7.794000e+002, 1.734851e+004
7.795000e+002, 1.732612e+004
7.796000e+002, 1.744104e+004
7.797000e+002, 1.735522e+004
7.798000e+002, 1.719627e+004
7.799000e+002, 1.725895e+004
7.800000e+002, 1.705000e+004
7.801000e+002, 1.738284e+004
7.802000e+002, 1.701567e+004
7.803000e+002, 1.707537e+004
7.804000e+002, 1.705448e+004
7.805000e+002, 1.687015e+004
7.806000e+002, 1.694104e+004
7.807000e+002, 1.700672e+004
7.808000e+002, 1.711045e+004
7.809000e+002, 1.709328e+004
7.810000e+002, 1.672687e+004
7.811000e+002, 1.689925e+004
7.812000e+002, 1.695000e+004
7.813000e+002, 1.692388e+004
7.814000e+002, 1.690149e+004
7.815000e+002, 1.688134e+004
#ENDOFDATA   : End Of Data and File
